  Date:02/12/2021  Time:12:19:28
Length (mm):0.000000  Diameter (mm):0.000000
Time.(s)	Up.Pore.Press.(MPa)	Dwn.Pore.Press.(MPa)	Conf.Press.(MPa)	Pp.vol.(mm3)	Force.(kN)	HR.Pp.vol.(mm3)	Displ.(mm)	Pc.vol.(mm3)	Temp.(degC)	Time.(s)	Up.Pore.Press.(V)	Dwn.Pore.Press.(V)	Conf.Press.(V)	Volume.(V)	Force.(V)	HR.Pp.vol.(V)	Displ.(V)	Pc.vol.(V)	
0.000000	50.001333	49.812527	130.099794	639.971844	30.984605	-103.344251	8.867867	626.360725	179.900000	235.600000	3721306813.078089	0.959671	0.902053	2.425730	-6.063959	7.418737	10.326164	-0.733908	1.167186
0.136000	50.001682	49.813225	130.113903	639.844964	30.971913	-103.344251	8.868089	628.267370	179.900000	235.700000	-0.000232	0.959830	0.901689	2.425619	-6.064480	7.418195	10.326164	-0.734195	1.166791
0.282000	50.002063	49.812003	130.107062	639.967999	30.976539	-103.344251	8.868130	626.131928	179.900000	235.700000	0.099769	0.959687	0.901990	2.425730	-6.063974	7.418514	10.326164	-0.734019	1.167233
0.408000	50.002869	49.810694	130.095519	639.925706	30.971421	-103.344251	8.868433	627.886041	179.900000	235.700000	0.299822	0.959878	0.902179	2.422989	-6.064148	7.418403	10.326164	-0.733987	1.166870
0.534000	50.003375	49.812177	130.079102	639.967999	30.991134	-103.344251	8.867684	624.606612	179.800000	235.700000	0.399773	0.960356	0.902353	2.423610	-6.063974	7.418578	10.326164	-0.733748	1.167549
0.670000	50.004147	49.810694	130.057896	639.760377	30.984682	-103.344251	8.868069	629.335091	179.800000	235.700000	0.499769	0.959783	0.901768	2.422957	-6.064827	7.418068	10.326164	-0.734338	1.166570
0.816000	50.004778	49.809821	130.042591	639.941085	30.987859	-103.344251	8.868372	627.657244	179.800000	235.700000	0.699800	0.960085	0.902100	2.423610	-6.064085	7.418307	10.326164	-0.734035	1.166917
0.942000	50.005492	49.810781	130.031475	639.925706	30.984966	-103.344251	8.868109	625.521802	179.800000	235.700000	0.799799	0.959958	0.902369	2.423276	-6.064148	7.418259	10.326164	-0.733796	1.167359
1.078000	50.006928	49.810170	130.014288	639.902637	30.989457	-103.344251	8.868231	624.759144	179.800000	235.700000	0.899974	0.960197	0.902100	2.423658	-6.064243	7.418371	10.326164	-0.734003	1.167517
1.204000	50.008189	49.812352	130.010526	639.991068	30.971125	-103.344251	8.867765	623.920220	179.800000	235.700000	1.099800	0.960292	0.902432	2.423929	-6.063880	7.418291	10.326164	-0.733908	1.167691
1.350000	50.009327	49.811130	130.019761	639.825740	30.982697	-103.344251	8.868069	627.504712	179.800000	235.700000	1.199800	0.959719	0.901832	2.423036	-6.064559	7.418817	10.326164	-0.734274	1.166949
1.486000	50.010713	49.812614	130.056614	639.987223	30.978008	-103.344251	8.868919	628.572433	179.800000	235.700000	1.299818	0.959528	0.901958	2.424710	-6.063895	7.418466	10.326164	-0.734035	1.166728
1.612000	50.011651	49.816018	130.070637	640.052585	30.981753	-103.344251	8.867887	623.386360	179.800000	235.700000	1.499802	0.960500	0.902606	2.426957	-6.063627	7.418498	10.326164	-0.733366	1.167802
1.748000	50.011974	49.814796	130.093210	639.918016	30.998836	-103.344251	8.868008	628.343636	179.800000	235.700000	1.599938	0.959607	0.901958	2.426049	-6.064180	7.418355	10.326164	-0.734179	1.166775
1.884000	50.012298	49.811217	130.105523	639.937240	30.983485	-103.344251	8.868555	629.106294	179.800000	235.700000	1.799772	0.959320	0.901705	2.425156	-6.064101	7.417813	10.326164	-0.734083	1.166617
2.020000	50.011676	49.813661	130.110910	639.979533	30.965970	-103.344251	8.867765	625.674333	179.800000	235.700000	1.899768	0.960101	0.902211	2.425953	-6.063927	7.418211	10.326164	-0.733653	1.167328
2.156000	50.010796	49.811217	130.133484	639.868033	30.984186	-103.344251	8.868089	630.631609	179.800000	235.700000	1.999768	0.959448	0.901658	2.425220	-6.064385	7.418689	10.326164	-0.734274	1.166301
2.282000	50.009899	49.807726	130.139469	639.894947	30.975111	-103.344251	8.868028	629.487623	179.800000	235.700000	2.199768	0.959384	0.901737	2.425523	-6.064274	7.418116	10.326164	-0.734019	1.166538
2.418000	50.007517	49.808511	130.110397	639.906481	31.015873	-103.344251	8.864669	626.436991	179.800000	235.700000	2.299768	0.960022	0.902243	2.425826	-6.064227	7.418355	10.326164	-0.734067	1.167170
2.554000	50.005691	49.792625	130.082779	639.210565	30.969818	-103.344251	8.867765	639.859769	179.800000	235.700000	2.399768	0.958269	0.899555	2.421060	-6.067086	7.417287	10.326164	-0.736713	1.164390
2.690000	50.003682	49.795157	130.066361	639.829585	30.972535	-103.344251	8.868393	625.750599	179.800000	235.700000	2.599767	0.960197	0.902290	2.423674	-6.064543	7.418657	10.326164	-0.734274	1.167312
2.826000	50.001897	49.794895	130.059179	639.925706	30.991357	-103.344251	8.867907	626.513257	179.800000	235.700000	2.699767	0.959448	0.901911	2.422877	-6.064148	7.418626	10.326164	-0.733780	1.167154
2.962000	50.000287	49.792887	130.040282	639.868033	30.987515	-103.344251	8.868170	624.911676	179.800000	235.700000	2.799772	0.959974	0.902243	2.423817	-6.064385	7.418116	10.326164	-0.734163	1.167486
3.098000	49.999108	49.792800	130.030876	639.821895	30.984457	-103.344251	8.868211	625.521802	179.800000	235.700000	2.999772	0.959703	0.901942	2.423562	-6.064575	7.418275	10.326164	-0.733956	1.167359
3.234000	49.998378	49.795418	130.017879	639.906481	31.012904	-103.344251	8.868008	623.233828	179.800000	235.700000	3.100018	0.960165	0.902179	2.423897	-6.064227	7.418387	10.326164	-0.733924	1.167833
3.380000	49.999084	49.794458	130.042591	639.948775	31.000322	-103.344251	8.868615	625.979397	179.800000	235.700000	3.299799	0.959958	0.902037	2.424917	-6.064053	7.417622	10.326164	-0.734083	1.167265
3.516000	50.000080	49.796204	130.049431	639.918016	30.961139	-103.344251	8.868028	621.098386	179.800000	235.700000	3.399772	0.959990	0.901974	2.425666	-6.064180	7.417908	10.326164	-0.733605	1.168276
3.642000	50.000984	49.798299	130.061146	639.829585	30.983236	-103.344251	8.868170	620.869589	179.800000	235.700000	3.499767	0.960404	0.902116	2.425459	-6.064543	7.418992	10.326164	-0.734067	1.168323
3.768000	50.003101	49.798823	130.086199	639.918016	30.985917	-103.344251	8.868372	621.174652	179.800000	235.700000	3.599769	0.960516	0.902337	2.425858	-6.064180	7.418339	10.326164	-0.733956	1.168260
3.914000	50.005126	49.815058	130.094407	639.948775	30.984558	-103.344251	8.868251	620.869589	179.800000	235.700000	3.799783	0.960229	0.902496	2.425890	-6.064053	7.418195	10.326164	-0.733796	1.168323
4.040000	50.007608	49.815494	130.104497	639.971844	30.985850	-103.344251	8.868008	621.861044	179.800000	235.700000	3.899767	0.960149	0.902369	2.425619	-6.063959	7.418211	10.326164	-0.733892	1.168118
4.176000	50.009667	49.814709	130.123822	639.918016	30.960759	-103.344251	8.868777	621.861044	179.800000	235.700000	3.999817	0.959878	0.901768	2.425443	-6.064180	7.418148	10.326164	-0.734083	1.168118
4.312000	50.011933	49.816978	130.123651	640.029516	30.962475	-103.344251	8.867543	618.886679	179.800000	235.700000	4.199767	0.960308	0.902654	2.425921	-6.063722	7.418801	10.326164	-0.733477	1.168734
4.448000	50.013668	49.819160	130.111851	639.698860	30.974377	-103.344251	8.868130	621.937310	179.800000	235.700000	4.299768	0.960181	0.902337	2.424885	-6.065080	7.418753	10.326164	-0.734450	1.168102
4.604000	50.014705	49.819422	130.105010	639.967999	30.975037	-103.344251	8.867846	621.555981	179.800000	235.700000	4.499768	0.959894	0.902227	2.424519	-6.063974	7.418450	10.326164	-0.733987	1.168181
4.730000	50.015187	49.820208	130.104668	639.887257	30.959774	-103.344251	8.868696	620.030665	179.800000	235.700000	4.599772	0.959942	0.902179	2.424583	-6.064306	7.418450	10.326164	-0.734211	1.168497
4.876000	50.015511	49.823437	130.096203	640.025672	30.963424	-103.344251	8.868595	616.522439	179.800000	235.700000	4.699769	0.960579	0.902559	2.425411	-6.063737	7.418881	10.326164	-0.733541	1.169223
5.002000	50.016216	49.825270	130.094578	639.937240	30.950551	-103.344251	8.867644	618.657881	179.800000	235.700000	4.899801	0.959878	0.902448	2.424694	-6.064101	7.418801	10.326164	-0.733621	1.168781
5.138000	50.016482	49.830682	130.090816	639.748843	30.971308	-103.344251	8.867765	616.217376	179.800000	235.700000	4.999800	0.960930	0.903318	2.425140	-6.064875	7.419167	10.326164	-0.734370	1.169286
5.274000	50.016000	49.828326	130.083890	639.825740	30.972543	-103.344251	8.868049	621.632247	179.900000	235.700000	5.099801	0.959798	0.902069	2.424885	-6.064559	7.418594	10.326164	-0.734274	1.168165
5.400000	50.015569	49.827191	130.083292	639.894947	30.998094	-103.344251	8.867968	621.708513	179.900000	235.700000	5.300014	0.959655	0.902164	2.424710	-6.064274	7.418578	10.326164	-0.734051	1.168149
5.526000	50.015544	49.829373	130.083634	639.906481	30.987297	-103.344251	8.867947	621.555981	179.900000	235.700000	5.399889	0.960006	0.902164	2.424296	-6.064227	7.417861	10.326164	-0.734115	1.168181
5.652000	50.015693	49.826842	130.083976	639.794981	30.973668	-103.344251	8.868393	619.954400	179.900000	235.700000	5.499800	0.960516	0.902195	2.424583	-6.064685	7.418163	10.326164	-0.734131	1.168512
5.778000	50.016175	49.827103	130.078161	639.964154	30.987259	-103.344251	8.867988	618.810413	179.900000	235.700000	5.599785	0.960500	0.902385	2.424646	-6.063990	7.418546	10.326164	-0.733780	1.168749
5.904000	50.017046	49.827802	130.073715	639.868033	30.967860	-103.344251	8.867543	619.954400	179.900000	235.700000	5.799800	0.960356	0.902353	2.424949	-6.064385	7.418179	10.326164	-0.734099	1.168512
6.040000	50.017212	49.827540	130.072689	639.741153	30.978723	-103.344251	8.868494	623.310094	179.900000	235.700000	5.899800	0.960053	0.902132	2.423865	-6.064906	7.418737	10.326164	-0.734450	1.167817
6.166000	50.017918	49.827889	130.076024	640.014137	30.981800	-103.344251	8.868049	619.268007	179.900000	235.700000	5.999976	0.960229	0.902622	2.424949	-6.063785	7.418434	10.326164	-0.733701	1.168655
6.312000	50.018308	49.826580	130.082950	639.925706	30.986230	-103.344251	8.868878	620.869589	179.900000	235.700000	6.199801	0.959814	0.902211	2.425379	-6.064148	7.418339	10.326164	-0.734051	1.168323
6.438000	50.018764	49.822215	130.090560	640.087189	30.945274	-103.344251	8.868514	618.734147	179.900000	235.700000	6.299799	0.960101	0.902527	2.426001	-6.063485	7.418195	10.326164	-0.733398	1.168765
6.574000	50.019055	49.825881	130.099196	639.906481	30.992594	-103.344251	8.867867	617.742692	179.900000	235.700000	6.399800	0.960022	0.902733	2.425714	-6.064227	7.419327	10.326164	-0.733685	1.168971
6.710000	50.018964	49.824136	130.103984	639.902637	30.983634	-103.344251	8.868089	622.471170	179.900000	235.700000	6.599802	0.959607	0.901847	2.424726	-6.064243	7.417972	10.326164	-0.734195	1.167991
6.876000	50.018175	49.823874	130.114159	639.964154	30.992283	-103.344251	8.868049	621.250918	179.900000	235.700000	6.699801	0.959671	0.902116	2.425507	-6.063990	7.418211	10.326164	-0.734019	1.168244
7.012000	50.016971	49.824310	130.117238	639.787291	30.978389	-103.344251	8.868312	620.717057	179.900000	235.700000	6.899799	0.959719	0.902274	2.425013	-6.064717	7.417940	10.326164	-0.734051	1.168355
7.138000	50.015643	49.824747	130.119888	639.879568	30.969069	-103.344251	8.868514	619.801868	179.900000	235.700000	6.999800	0.959990	0.902464	2.425523	-6.064338	7.418323	10.326164	-0.733844	1.168544
7.264000	50.013933	49.824659	130.111680	639.960309	30.986290	-103.344251	8.867826	618.810413	179.900000	235.700000	7.100019	0.960069	0.902337	2.425427	-6.064006	7.418578	10.326164	-0.733685	1.168749
7.390000	50.012506	49.823525	130.100735	639.906481	30.974883	-103.344251	8.868008	622.699968	179.900000	235.700000	7.299779	0.959591	0.901926	2.424822	-6.064227	7.418116	10.326164	-0.734226	1.167944
7.526000	50.010538	49.820121	130.087909	639.952620	30.997082	-103.344251	8.867968	622.776234	179.900000	235.700000	7.399775	0.959862	0.902006	2.423674	-6.064038	7.418466	10.326164	-0.734083	1.167928
7.662000	50.008463	49.817502	130.072860	639.937240	30.983805	-103.344251	8.868190	621.098386	179.900000	235.700000	7.499767	0.959671	0.901737	2.423722	-6.064101	7.417877	10.326164	-0.734115	1.168276
7.798000	50.006488	49.812788	130.063112	639.891102	30.990411	-103.344251	8.868231	622.318639	179.900000	235.700000	7.699768	0.959655	0.901674	2.423515	-6.064290	7.418291	10.326164	-0.733940	1.168023
7.944000	50.005268	49.809122	130.056186	639.937240	31.002976	-103.344251	8.868150	618.886679	179.900000	235.700000	7.799767	0.960181	0.902069	2.423881	-6.064101	7.418132	10.326164	-0.733908	1.168734
8.070000	50.004587	49.809122	130.045241	639.918016	30.963243	-103.344251	8.868352	621.022121	179.900000	235.700000	7.899821	0.959894	0.901847	2.423722	-6.064180	7.417797	10.326164	-0.733971	1.168291
8.206000	50.004238	49.812963	130.042334	639.887257	30.978253	-103.344251	8.868291	618.200286	179.900000	235.700000	8.099769	0.960659	0.902812	2.425013	-6.064306	7.418944	10.326164	-0.733812	1.168876
8.352000	50.004321	49.813050	130.042420	639.883412	30.987875	-103.344251	8.868069	621.250918	179.900000	235.700000	8.199767	0.959687	0.902290	2.424487	-6.064322	7.418530	10.326164	-0.733860	1.168244
8.478000	50.004927	49.811479	130.050457	639.910326	30.984267	-103.344251	8.867927	618.962944	179.900000	235.700000	8.399769	0.960308	0.902179	2.424678	-6.064211	7.418068	10.326164	-0.734051	1.168718
8.614000	50.006064	49.811130	130.054647	639.898792	30.975365	-103.344251	8.868130	619.954400	179.900000	235.700000	8.499821	0.959862	0.902274	2.424216	-6.064259	7.418339	10.326164	-0.734147	1.168512
8.740000	50.007434	49.814010	130.057554	639.902637	30.991513	-103.344251	8.867947	618.886679	179.900000	235.700000	8.599769	0.960324	0.902448	2.424694	-6.064243	7.418578	10.326164	-0.733987	1.168734
8.876000	50.009019	49.813749	130.060975	639.787291	30.988351	-103.344251	8.868089	621.632247	179.900000	235.700000	8.699777	0.959942	0.901958	2.424057	-6.064717	7.418116	10.326164	-0.734131	1.168165
9.012000	50.010563	49.816542	130.064566	639.960309	30.983472	-103.344251	8.868453	620.793323	179.900000	235.700000	8.899799	0.959926	0.902243	2.424072	-6.064006	7.418195	10.326164	-0.734019	1.168339
9.148000	50.011775	49.820644	130.057811	639.994913	30.969395	-103.344251	8.868190	619.268007	179.900000	235.700000	8.999797	0.960133	0.902417	2.424567	-6.063864	7.418323	10.326164	-0.733732	1.168655
9.284000	50.012746	49.820819	130.052167	639.929550	30.974471	-103.344251	8.868028	620.335728	179.900000	235.700000	9.199799	0.959878	0.902100	2.424088	-6.064132	7.418737	10.326164	-0.733940	1.168433
9.420000	50.013278	49.820993	130.046524	639.841119	30.989745	-103.344251	8.867947	620.335728	179.900000	235.700000	9.299799	0.959894	0.901879	2.423786	-6.064496	7.418610	10.326164	-0.734067	1.168433
9.566000	50.013825	49.816018	130.037460	639.844964	30.986088	-103.344251	8.868130	620.793323	179.900000	235.700000	9.399773	0.960037	0.901911	2.423626	-6.064480	7.418195	10.326164	-0.734131	1.168339
9.702000	50.013967	49.813138	130.035494	639.844964	30.998741	-103.344251	8.868211	620.717057	179.900000	235.700000	9.599768	0.959894	0.901768	2.423307	-6.064480	7.418323	10.326164	-0.733987	1.168355
9.858000	50.013684	49.811392	130.032501	639.948775	31.001862	-103.344251	8.868150	620.945855	179.900000	235.700000	9.699769	0.959751	0.901863	2.423690	-6.064053	7.417972	10.326164	-0.733924	1.168307
9.984000	50.012871	49.810781	130.026516	639.929550	30.992809	-103.344251	8.867725	619.420539	179.900000	235.700000	9.899767	0.960053	0.902164	2.424025	-6.064132	7.417893	10.326164	-0.733971	1.168623
10.130000	50.011709	49.806766	130.023181	639.833429	30.997663	-103.344251	8.867887	621.555981	179.900000	235.700000	9.999767	0.959575	0.901721	2.423451	-6.064527	7.418163	10.326164	-0.734306	1.168181
10.266000	50.010862	49.805631	130.023266	639.883412	31.009551	-103.344251	8.868190	621.403449	179.900000	235.700000	10.099821	0.959655	0.901753	2.423531	-6.064322	7.418036	10.326164	-0.734179	1.168212
10.402000	50.009791	49.803885	130.023779	639.929550	30.987975	-103.344251	8.868069	619.344273	179.900000	235.700000	10.299768	0.960101	0.901926	2.424009	-6.064132	7.417701	10.326164	-0.733940	1.168639
10.538000	50.008820	49.800394	130.022497	639.925706	30.983566	-103.344251	8.867846	621.479715	179.900000	235.700000	10.399768	0.959767	0.901784	2.423722	-6.064148	7.418307	10.326164	-0.734035	1.168197
10.684000	50.007998	49.799346	130.021642	639.960309	31.008575	-103.344251	8.867765	620.106931	179.900000	235.700000	10.599769	0.960022	0.901911	2.423674	-6.064006	7.418434	10.326164	-0.734211	1.168481
10.820000	50.007442	49.798997	130.019932	639.871878	30.989479	-103.344251	8.867786	622.623702	179.800000	235.700000	10.699769	0.959751	0.901816	2.423531	-6.064369	7.417733	10.326164	-0.734274	1.167960
10.946000	50.006986	49.799957	130.021129	639.802671	30.994462	-103.344251	8.868089	622.166107	179.800000	235.700000	10.799769	0.960037	0.902085	2.423339	-6.064654	7.418275	10.326164	-0.734258	1.168054
11.102000	50.006745	49.799346	130.022411	639.971844	30.976776	-103.344251	8.868231	621.098386	179.800000	235.700000	10.999770	0.959751	0.901658	2.423626	-6.063959	7.418132	10.326164	-0.734019	1.168276
11.228000	50.006372	49.801878	130.021898	639.921861	30.972294	-103.344251	8.868190	618.962944	179.800000	235.700000	11.099769	0.959878	0.902322	2.423770	-6.064164	7.418626	10.326164	-0.733908	1.168718
11.364000	50.006247	49.802139	130.021043	639.914171	30.983707	-103.344251	8.868008	620.488260	179.800000	235.700000	11.199768	0.959798	0.902211	2.423786	-6.064196	7.418753	10.326164	-0.733940	1.168402
11.490000	50.006172	49.803973	130.022668	639.902637	30.986382	-103.344251	8.867664	619.496805	179.800000	235.700000	11.399767	0.960181	0.902053	2.423945	-6.064243	7.418434	10.326164	-0.734083	1.168607
11.636000	50.006280	49.802489	130.028140	639.848809	30.979623	-103.344251	8.868231	621.555981	179.800000	235.700000	11.499767	0.959591	0.901484	2.423610	-6.064464	7.418355	10.326164	-0.734354	1.168181
11.782000	50.006455	49.803536	130.028824	639.910326	31.005616	-103.344251	8.868089	618.200286	179.800000	235.700000	11.699768	0.960452	0.902116	2.424375	-6.064211	7.418530	10.326164	-0.733908	1.168876
11.938000	50.006836	49.804758	130.027542	639.868033	30.980813	-103.344251	8.868069	619.344273	179.800000	235.700000	11.799767	0.959894	0.902006	2.423467	-6.064385	7.417797	10.326164	-0.734019	1.168639
12.064000	50.006961	49.805282	130.021556	639.806515	31.000086	-103.344251	8.867826	618.276552	179.800000	235.700000	11.899769	0.960181	0.902006	2.423833	-6.064638	7.418498	10.326164	-0.734035	1.168860
12.200000	50.007060	49.803798	130.021300	639.818050	30.995578	-103.344251	8.868049	620.335728	179.800000	235.700000	12.099768	0.959512	0.901547	2.422797	-6.064590	7.417972	10.326164	-0.734226	1.168433
12.346000	50.007036	49.802663	130.020872	639.910326	31.002418	-103.344251	8.868170	619.039210	179.800000	235.700000	12.199768	0.959990	0.901879	2.423738	-6.064211	7.418100	10.326164	-0.734051	1.168702
12.502000	50.007210	49.804147	130.022753	639.991068	30.988640	-103.344251	8.868109	619.573071	179.800000	235.700000	12.399768	0.959719	0.901926	2.423642	-6.063880	7.417908	10.326164	-0.733956	1.168591
12.638000	50.007434	49.804409	130.021642	639.887257	30.990447	-103.344251	8.867846	618.047755	179.800000	235.700000	12.499768	0.960197	0.902369	2.423961	-6.064306	7.418291	10.326164	-0.734003	1.168907
12.764000	50.007725	49.803536	130.022240	639.864188	30.989256	-103.344251	8.868170	620.717057	179.800000	235.700000	12.599775	0.959894	0.902053	2.423642	-6.064401	7.418243	10.326164	-0.734211	1.168355
12.890000	50.007907	49.803362	130.021043	639.967999	30.996170	-103.344251	8.867988	619.191742	179.800000	235.700000	12.799768	0.959926	0.902021	2.423786	-6.063974	7.418275	10.326164	-0.733956	1.168670
13.026000	50.007816	49.806678	130.021984	639.937240	30.982483	-103.344251	8.868049	619.039210	179.800000	235.700000	12.899767	0.959687	0.902085	2.423610	-6.064101	7.418084	10.326164	-0.734099	1.168702
13.152000	50.008156	49.807289	130.026430	639.960309	31.001315	-103.344251	8.867624	618.657881	179.800000	235.700000	12.999773	0.960006	0.902227	2.423658	-6.064006	7.418466	10.326164	-0.734051	1.168781
13.288000	50.008347	49.805893	130.024720	639.837274	30.986184	-103.344251	8.867907	621.250918	179.800000	235.700000	13.199768	0.959974	0.901753	2.423403	-6.064511	7.417924	10.326164	-0.734386	1.168244
13.424000	50.008986	49.805107	130.027285	639.871878	30.993301	-103.344251	8.868453	619.954400	179.800000	235.700000	13.299767	0.959846	0.901863	2.423531	-6.064369	7.418355	10.326164	-0.734163	1.168512
13.550000	50.009252	49.809122	130.026772	639.921861	30.972956	-103.344251	8.867786	617.818958	179.800000	235.700000	13.399768	0.960085	0.902274	2.424120	-6.064164	7.418148	10.326164	-0.733732	1.168955
13.686000	50.009194	49.808948	130.022668	639.871878	31.007910	-103.344251	8.868291	619.039210	179.700000	235.700000	13.599768	0.959862	0.901847	2.423594	-6.064369	7.418721	10.326164	-0.734258	1.168702
13.822000	50.008820	49.807900	130.022582	639.987223	30.992056	-103.344251	8.868069	620.869589	179.700000	235.800000	13.699768	0.959751	0.901737	2.423403	-6.063895	7.417749	10.326164	-0.733860	1.168323
13.948000	50.008530	49.804496	130.023266	639.925706	30.998788	-103.344251	8.868008	617.361363	179.700000	235.800000	13.799768	0.959926	0.901753	2.423770	-6.064148	7.418195	10.326164	-0.734035	1.169050
14.094000	50.007965	49.802663	130.020188	639.837274	30.988321	-103.344251	8.868130	619.115476	179.700000	235.800000	13.999767	0.959687	0.901721	2.423722	-6.064511	7.418004	10.326164	-0.734083	1.168686
14.230000	50.007583	49.801441	130.021556	639.856498	30.987056	-103.344251	8.868413	619.573071	179.700000	235.800000	14.099800	0.959735	0.901800	2.423387	-6.064432	7.418307	10.326164	-0.733987	1.168591
14.366000	50.006986	49.801005	130.019675	639.918016	30.975341	-103.344251	8.868008	617.056300	179.800000	235.800000	14.200091	0.959830	0.902006	2.423658	-6.064180	7.418339	10.326164	-0.733764	1.169113
14.512000	50.006139	49.801092	130.019162	639.864188	30.982755	-103.344251	8.867786	618.047755	179.800000	235.800000	14.399804	0.959974	0.902243	2.423881	-6.064401	7.418673	10.326164	-0.734083	1.168907
14.638000	50.005400	49.802751	130.018991	639.894947	30.987870	-103.344251	8.868251	619.039210	179.800000	235.800000	14.499800	0.959910	0.902053	2.423817	-6.064274	7.418466	10.326164	-0.734258	1.168702
14.774000	50.004346	49.805107	130.020274	639.868033	31.009840	-103.344251	8.867947	618.124021	179.800000	235.800000	14.599791	0.959942	0.902290	2.423562	-6.064385	7.418323	10.326164	-0.733892	1.168892
14.910000	50.003823	49.802838	130.022839	639.948775	30.977302	-103.344251	8.868352	618.734147	179.800000	235.800000	14.799800	0.959719	0.901863	2.423531	-6.064053	7.417701	10.326164	-0.734131	1.168765
15.066000	50.004014	49.805282	130.024805	639.910326	30.996940	-103.344251	8.868190	616.751237	179.800000	235.800000	14.899802	0.960324	0.902290	2.424152	-6.064211	7.418610	10.326164	-0.733812	1.169176
15.192000	50.004330	49.807988	130.026002	639.856498	30.985494	-103.344251	8.868069	619.115476	179.800000	235.800000	15.099813	0.959942	0.902227	2.423642	-6.064432	7.418052	10.326164	-0.733940	1.168686
15.348000	50.004587	49.810083	130.026430	639.898792	30.986586	-103.344251	8.868170	618.505350	179.800000	235.800000	15.199800	0.960069	0.902132	2.423881	-6.064259	7.418371	10.326164	-0.734035	1.168813
15.484000	50.005102	49.811130	130.026345	639.818050	30.977530	-103.344251	8.868008	619.420539	179.800000	235.800000	15.399802	0.959703	0.901911	2.423626	-6.064590	7.418339	10.326164	-0.733956	1.168623
15.630000	50.005500	49.812352	130.027371	639.941085	30.981963	-103.344251	8.867988	618.047755	179.800000	235.800000	15.499801	0.959926	0.902021	2.423802	-6.064085	7.418594	10.326164	-0.734083	1.168907
15.776000	50.006098	49.811654	130.029252	639.918016	30.986880	-103.344251	8.868150	618.810413	179.800000	235.800000	15.599800	0.959575	0.901879	2.423754	-6.064180	7.418466	10.326164	-0.734099	1.168749
15.902000	50.006413	49.810955	130.027884	639.910326	30.989278	-103.344251	8.868089	618.124021	179.800000	235.800000	15.799802	0.959894	0.902116	2.423849	-6.064211	7.418323	10.326164	-0.733971	1.168892
16.028000	50.006621	49.810955	130.028055	639.894947	30.974532	-103.344251	8.868393	620.335728	179.800000	235.800000	15.899799	0.959990	0.902053	2.423897	-6.064274	7.418259	10.326164	-0.734019	1.168433
16.164000	50.007027	49.810606	130.027798	639.994913	30.990986	-103.344251	8.868190	616.674971	179.900000	235.800000	16.000026	0.960006	0.902227	2.423865	-6.063864	7.418673	10.326164	-0.733780	1.169192
16.310000	50.007069	49.811654	130.024976	639.964154	30.987859	-103.344251	8.867826	614.997123	179.900000	235.800000	16.199941	0.960022	0.902053	2.423786	-6.063990	7.418211	10.326164	-0.733940	1.169539
16.446000	50.006894	49.808948	130.025147	639.794981	30.991808	-103.344251	8.868049	618.657881	179.900000	235.800000	16.299773	0.959703	0.901800	2.423228	-6.064685	7.418307	10.326164	-0.734226	1.168781
16.602000	50.006795	49.809733	130.026943	639.837274	30.988802	-103.344251	8.868231	616.141110	179.900000	235.800000	16.499773	0.959926	0.902369	2.423833	-6.064511	7.418195	10.326164	-0.734051	1.169302
16.728000	50.007285	49.809210	130.026174	639.994913	30.980945	-103.344251	8.867968	614.920858	179.900000	235.800000	16.599773	0.959958	0.902037	2.424088	-6.063864	7.418275	10.326164	-0.733908	1.169555
16.884000	50.007874	49.810083	130.027114	639.829585	30.975756	-103.344251	8.868231	616.827502	179.900000	235.800000	16.799772	0.960181	0.902069	2.423770	-6.064543	7.418498	10.326164	-0.734115	1.169160
17.020000	50.008530	49.810781	130.025147	639.906481	30.994641	-103.344251	8.867725	615.683516	179.900000	235.800000	16.899769	0.960197	0.902148	2.424072	-6.064227	7.418642	10.326164	-0.733908	1.169397
17.146000	50.008887	49.811392	130.025147	639.952620	31.003705	-103.344251	8.868130	617.056300	179.900000	235.800000	16.999769	0.959767	0.901990	2.423499	-6.064038	7.418116	10.326164	-0.734306	1.169113
17.272000	50.009302	49.810083	130.027627	639.868033	31.005165	-103.344251	8.868170	616.674971	179.900000	235.800000	17.099802	0.959910	0.901879	2.423690	-6.064385	7.417861	10.326164	-0.733987	1.169192
17.398000	50.009941	49.809035	130.030791	639.929550	30.983899	-103.344251	8.868109	617.361363	179.900000	235.800000	17.300011	0.959496	0.901863	2.423610	-6.064132	7.417813	10.326164	-0.733956	1.169050
17.524000	50.010580	49.808424	130.030876	639.933395	30.988423	-103.344251	8.868413	616.522439	179.900000	235.800000	17.399802	0.960245	0.902116	2.424216	-6.064117	7.418403	10.326164	-0.734003	1.169223
17.660000	50.011012	49.809297	130.029508	639.933395	30.993087	-103.344251	8.867624	614.158200	179.900000	235.800000	17.499802	0.960069	0.902211	2.423849	-6.064117	7.418275	10.326164	-0.733764	1.169713
17.786000	50.011269	49.808424	130.031133	639.871878	30.984432	-103.344251	8.867927	618.200286	179.900000	235.800000	17.699800	0.959735	0.901642	2.423499	-6.064369	7.418148	10.326164	-0.734386	1.168876
17.922000	50.011285	49.807028	130.031817	639.979533	30.975869	-103.344251	8.868211	616.598705	179.900000	235.800000	17.799798	0.960085	0.902116	2.424072	-6.063927	7.418387	10.326164	-0.734147	1.169207
18.058000	50.011028	49.807639	130.033698	639.898792	31.000047	-103.344251	8.867968	614.768326	179.900000	235.800000	17.899799	0.960117	0.902148	2.424200	-6.064259	7.418626	10.326164	-0.733924	1.169587
18.194000	50.010771	49.807639	130.036092	639.887257	30.979988	-103.344251	8.868393	616.446173	179.900000	235.800000	18.099802	0.960069	0.902069	2.423817	-6.064306	7.417940	10.326164	-0.734115	1.169239
18.380000	50.010854	49.810083	130.034724	640.010292	30.992017	-103.344251	8.867988	614.310731	179.900000	235.900000	18.199800	0.960213	0.902590	2.424312	-6.063801	7.418498	10.326164	-0.733780	1.169681
18.536000	50.011211	49.810694	130.035836	639.902637	30.979446	-103.344251	8.868150	617.437629	179.900000	235.900000	18.399801	0.960101	0.902100	2.423658	-6.064243	7.418163	10.326164	-0.734099	1.169034
18.682000	50.011725	49.812003	130.036092	639.898792	30.960727	-103.344251	8.868211	614.386997	180.000000	235.900000	18.499800	0.960372	0.902116	2.424057	-6.064259	7.418514	10.326164	-0.733971	1.169666
18.818000	50.012273	49.814010	130.036007	639.871878	30.964134	-103.344251	8.868089	614.386997	180.000000	235.900000	18.699930	0.960181	0.902227	2.424264	-6.064369	7.419040	10.326164	-0.733924	1.169666
18.954000	50.012630	49.815756	130.033869	639.791136	30.953010	-103.344251	8.868211	613.853137	180.000000	235.900000	18.800026	0.960452	0.902432	2.424057	-6.064701	7.418944	10.326164	-0.734019	1.169776
19.100000	50.013336	49.814883	130.035066	639.902637	30.986319	-103.344251	8.868109	614.615795	180.000000	235.900000	18.999973	0.959974	0.902053	2.424088	-6.064243	7.419263	10.326164	-0.733924	1.169618
19.256000	50.013643	49.817938	130.031902	639.887257	30.984925	-103.344251	8.868069	616.141110	180.000000	235.900000	19.100017	0.960133	0.902195	2.424041	-6.064306	7.418323	10.326164	-0.734003	1.169302
19.412000	50.014166	49.817502	130.035921	639.856498	30.978872	-103.344251	8.868453	617.056300	180.000000	235.900000	19.299801	0.959878	0.902037	2.424009	-6.064432	7.418371	10.326164	-0.734035	1.169113
19.538000	50.014232	49.818375	130.035750	640.006447	30.971524	-103.344251	8.868109	614.997123	180.000000	235.900000	19.399801	0.960436	0.902306	2.424407	-6.063816	7.418530	10.326164	-0.733732	1.169539
19.674000	50.014207	49.817502	130.037289	639.918016	30.991203	-103.344251	8.868130	616.674971	180.000000	235.900000	19.499815	0.959814	0.901911	2.424025	-6.064180	7.418737	10.326164	-0.734003	1.169192
19.800000	50.013643	49.814272	130.035237	639.860343	30.999332	-103.344251	8.867482	615.988579	180.000000	235.900000	19.699801	0.959703	0.902006	2.423897	-6.064417	7.418179	10.326164	-0.733987	1.169334
19.936000	50.013037	49.811566	130.038401	639.760377	30.986564	-103.344251	8.868393	619.801868	180.000000	235.900000	19.799951	0.959830	0.901610	2.423674	-6.064827	7.417956	10.326164	-0.734497	1.168544
20.072000	50.012257	49.810868	130.035836	639.921861	30.978880	-103.344251	8.867927	616.446173	179.900000	235.900000	19.899802	0.960069	0.901990	2.424025	-6.064164	7.418307	10.326164	-0.733780	1.169239
20.208000	50.011410	49.808424	130.036862	639.964154	30.977081	-103.344251	8.868271	617.437629	179.900000	235.900000	20.099773	0.959926	0.901784	2.423817	-6.063990	7.418530	10.326164	-0.734147	1.169034
20.374000	50.010431	49.807115	130.033527	639.948775	30.989300	-103.344251	8.868312	616.980034	179.900000	235.900000	20.199958	0.959767	0.902195	2.423817	-6.064053	7.418578	10.326164	-0.733876	1.169128
20.530000	50.009509	49.808075	130.031731	640.002602	30.969079	-103.344251	8.867947	613.319276	179.900000	235.900000	20.400801	0.960149	0.902227	2.424072	-6.063832	7.418243	10.326164	-0.733844	1.169887
20.666000	50.009011	49.808075	130.029252	639.898792	30.952323	-103.344251	8.868049	615.454718	179.900000	235.900000	20.500800	0.959990	0.902195	2.423690	-6.064259	7.418817	10.326164	-0.734131	1.169444
20.792000	50.008322	49.808948	130.027371	639.810360	30.973465	-103.344251	8.867826	615.302187	179.900000	235.900000	20.700774	0.960181	0.902195	2.423929	-6.064622	7.419295	10.326164	-0.734051	1.169476
20.918000	50.007824	49.805980	130.025489	639.744998	30.971947	-103.344251	8.867907	619.496805	179.900000	235.900000	20.800772	0.959798	0.901768	2.423323	-6.064891	7.418705	10.326164	-0.734226	1.168607
21.054000	50.007226	49.806678	130.024121	639.768067	30.987375	-103.344251	8.868231	616.903768	179.900000	235.900000	20.900771	0.959878	0.902037	2.423674	-6.064796	7.418753	10.326164	-0.734163	1.169144
21.190000	50.007085	49.806155	130.026088	639.864188	30.975855	-103.344251	8.867907	618.047755	179.900000	235.900000	21.100769	0.959623	0.901911	2.423483	-6.064401	7.418323	10.326164	-0.733908	1.168907
21.346000	50.006894	49.808424	130.024463	639.837274	30.972613	-103.344251	8.868231	616.141110	179.900000	235.900000	21.200768	0.960022	0.902021	2.424184	-6.064511	7.418642	10.326164	-0.734163	1.169302
21.472000	50.006338	49.809384	130.019419	639.906481	30.990095	-103.344251	8.867624	615.988579	179.900000	235.900000	21.300768	0.959814	0.902164	2.423419	-6.064227	7.418737	10.326164	-0.733908	1.169334
21.628000	50.006006	49.810083	130.023181	639.948775	30.986333	-103.344251	8.868433	617.132565	179.900000	235.900000	21.500800	0.959448	0.901911	2.423355	-6.064053	7.418259	10.326164	-0.734386	1.169097
21.764000	50.006122	49.809646	130.023950	639.960309	30.969830	-103.344251	8.868089	615.073389	179.900000	235.900000	21.600800	0.960356	0.902116	2.424327	-6.064006	7.418355	10.326164	-0.733748	1.169523
21.890000	50.006164	49.808861	130.024207	639.810360	30.983401	-103.344251	8.868028	615.988579	179.900000	235.900000	21.800768	0.960165	0.902085	2.423865	-6.064622	7.418817	10.326164	-0.734019	1.169334
22.016000	50.006147	49.807202	130.024292	639.894947	30.977728	-103.344251	8.868231	617.285097	179.900000	235.900000	21.900768	0.959910	0.901895	2.423722	-6.064274	7.418434	10.326164	-0.734067	1.169065
22.152000	50.006363	49.807115	130.022069	640.014137	30.962080	-103.344251	8.868170	614.920858	179.900000	235.900000	22.000769	0.959910	0.902179	2.423929	-6.063785	7.418594	10.326164	-0.733908	1.169555
22.288000	50.006670	49.809559	130.022497	639.918016	30.988665	-103.344251	8.868696	615.302187	179.900000	235.900000	22.200768	0.959958	0.902211	2.423754	-6.064180	7.419040	10.326164	-0.733956	1.169476
22.424000	50.007243	49.809995	130.023779	639.879568	30.980610	-103.344251	8.867947	615.454718	179.800000	235.900000	22.300782	0.959798	0.902116	2.423499	-6.064338	7.418291	10.326164	-0.733541	1.169444
22.550000	50.007957	49.811916	130.024378	639.814205	30.982818	-103.344251	8.868049	616.903768	179.800000	235.900000	22.400773	0.960085	0.902258	2.423706	-6.064606	7.418514	10.326164	-0.734131	1.169144
22.676000	50.008148	49.811479	130.018734	639.860343	30.989028	-103.344251	8.867846	617.361363	179.800000	235.900000	22.500782	0.959974	0.901942	2.423467	-6.064417	7.418450	10.326164	-0.734051	1.169050
22.812000	50.008679	49.810781	130.016255	639.871878	30.992100	-103.344251	8.867867	615.912313	179.800000	235.900000	22.700769	0.959942	0.902037	2.423355	-6.064369	7.418291	10.326164	-0.734211	1.169350
22.948000	50.008588	49.811392	130.011210	639.833429	30.973892	-103.344251	8.868190	617.132565	179.800000	235.900000	22.800769	0.959862	0.902021	2.423403	-6.064527	7.418211	10.326164	-0.734195	1.169097
23.124000	50.008164	49.812177	130.011637	639.918016	30.972717	-103.344251	8.867988	614.615795	179.800000	235.900000	23.000769	0.960022	0.902258	2.423722	-6.064180	7.418737	10.326164	-0.733940	1.169618
23.280000	50.007608	49.812003	130.007362	639.894947	30.971430	-103.344251	8.867887	617.666426	179.800000	235.900000	23.100770	0.959846	0.902053	2.423578	-6.064274	7.418769	10.326164	-0.734099	1.168986
23.436000	50.006969	49.811916	130.014545	639.829585	30.975269	-103.344251	8.868231	616.674971	179.800000	236.000000	23.300820	0.959830	0.901879	2.423052	-6.064543	7.418817	10.326164	-0.734179	1.169192
23.572000	50.006604	49.813574	130.042505	639.937240	30.948778	-103.344251	8.868271	613.776871	179.800000	236.000000	23.500769	0.960308	0.902480	2.426017	-6.064101	7.419088	10.326164	-0.733748	1.169792
23.708000	50.006330	49.814534	130.056272	639.933395	30.969543	-103.344251	8.868109	614.844592	179.800000	236.000000	23.600770	0.960340	0.902385	2.426113	-6.064117	7.419359	10.326164	-0.733876	1.169571
23.844000	50.006654	49.815582	130.079615	639.956464	30.948596	-103.344251	8.867806	615.302187	179.800000	236.000000	23.700769	0.960101	0.902306	2.425921	-6.064022	7.418737	10.326164	-0.734003	1.169476
24.000000	50.006421	49.815407	130.091415	639.633498	30.955955	-103.344251	8.868615	616.522439	179.700000	236.000000	23.900769	0.960181	0.902227	2.424678	-6.065349	7.419263	10.326164	-0.734242	1.169223
24.126000	50.006795	49.815582	130.105096	639.975689	30.953502	-103.344251	8.868271	615.607250	179.700000	236.000000	24.000768	0.959480	0.901974	2.425921	-6.063943	7.419024	10.326164	-0.733605	1.169413
24.262000	50.007534	49.816455	130.127669	639.879568	30.973984	-103.344251	8.867826	614.234466	179.700000	236.000000	24.100770	0.960133	0.902195	2.426129	-6.064338	7.419056	10.326164	-0.733876	1.169697
24.388000	50.008621	49.815320	130.117836	639.925706	30.953405	-103.344251	8.867907	616.293642	179.700000	236.000000	24.300978	0.959878	0.901816	2.424439	-6.064148	7.418418	10.326164	-0.734226	1.169271
24.524000	50.009841	49.813487	130.104754	639.879568	30.963165	-103.344251	8.868130	617.971489	179.700000	236.000000	24.400802	0.959910	0.901926	2.423212	-6.064338	7.419024	10.326164	-0.734163	1.168923
24.660000	50.010953	49.815320	130.081582	639.802671	30.966534	-103.344251	8.868049	617.513894	179.700000	236.000000	24.500773	0.960308	0.902385	2.423578	-6.064654	7.418785	10.326164	-0.733987	1.169018
24.786000	50.011966	49.816542	130.068756	639.856498	30.989866	-103.344251	8.867786	617.818958	179.700000	236.000000	24.700767	0.959639	0.902100	2.423515	-6.064432	7.418753	10.326164	-0.734051	1.168955
24.912000	50.012564	49.814185	130.069782	639.756533	30.976737	-103.344251	8.869081	617.818958	179.700000	236.000000	24.800768	0.959942	0.902053	2.423674	-6.064843	7.418132	10.326164	-0.734258	1.168955
25.038000	50.013012	49.813923	130.056186	640.044896	30.948024	-103.344251	8.868028	613.853137	179.700000	235.900000	24.900768	0.960324	0.902337	2.424869	-6.063658	7.418498	10.326164	-0.733238	1.169776
25.174000	50.011833	49.811741	130.028568	639.829585	30.980148	-103.344251	8.867523	619.268007	179.700000	235.900000	25.000769	0.959352	0.901911	2.423387	-6.064543	7.419343	10.326164	-0.734067	1.168655
25.300000	50.011061	49.809472	130.026687	639.894947	30.950304	-103.344251	8.867867	620.411994	179.700000	235.900000	25.200780	0.959559	0.901816	2.423770	-6.064274	7.418514	10.326164	-0.734466	1.168418
